ups_ip
10.76.71.35
10.76.82.29
10.74.90.28
10.74.86.21

10.83.12.20
NA

10.116.18.2
10.116.16.2
10.10.136.2
10.18.81.23

10.30.54.2

10.30.26.2
10.30.96.20
10.30.62.2
10.30.58.2
10.30.50.2
10.30.34.2
10.30.30.2
10.30.22.2
10.30.18.2
10.91.22.5
10.91.80.20
10.91.44.27
10.91.38.20
10.91.34.20
10.91.30.20
10.91.26.20
10.7.14.2
10.76.7.5
10.76.7.37
10.126.96.28
10.126.88.2
10.126.86.21

10.18.26.2
10.89.49.11
10.89.49.10
10.89.48.6
10.89.195.250
10.89.194.20
10.89.193.20
10.89.192.231
10.89.192.230

10.9.78.2
10.9.82.2
10.9.182.2
10.6.98.2
10.6.94.26
10.6.88.2
10.6.84.2
10.6.76.2
10.6.72.2
10.6.68.2
10.6.62.29
10.6.58.2
10.6.54.2
10.6.48.2
10.6.44.2
10.6.4.26
10.6.38.2
10.6.32.2
10.6.26.2
10.6.24.2
10.6.182.21
10.6.18.2
10.6.14.2
10.6.136.2
10.6.128.27
10.6.122.2
10.6.118.2
10.6.112.29
10.6.108.2
10.6.102.28
10.6.10.2
10.76.48.21
10.85.50.5
10.85.49.2
10.85.46.11
10.85.41.44
10.85.39.15
10.74.30.2
10.74.26.2
10.74.22.2
10.74.18.22



NA


10.150.89.200



10.204.208.35
10.204.184.35
10.204.164.35
10.204.154.35
10.206.152.35
10.206.138.55
10.206.138.45
10.206.138.23
10.206.130.35
10.206.128.55
10.206.128.45
10.206.128.35
10.194.84.2
10.7.132.2
N/A
10.205.177.2
10.205.176.2
10.151.166.39
10.151.169.21
10.151.179.31
10.151.178.25
10.151.177.22
10.151.176.22
10.151.175.22
10.151.171.22
10.151.170.23
10.151.168.26
10.151.167.22
10.151.165.30
10.151.128.21
-
10.60.56.135
10.60.130.29
N/A
N/A
10.60.141.24
10.60.140.27
10.60.139.20
10.60.138.26
10.60.137.22
10.60.136.25
10.60.135.23
10.60.134.23
10.60.133.29
10.60.129.24
10.136.60.2
10.136.37.126
10.150.9.10
10.150.26.10

10.150.240.75
10.134.54.26
10.134.20.2
10.134.51.24
10.134.48.2
10.134.36.2
10.134.32.2
10.134.30.21
10.134.28.2
10.136.20.4
10.150.116.2
10.150.112.2
